frame	time(s)	intensity	nformants	F1(Hz)	B1(Hz)	F2(Hz)	B2(Hz)	F3(Hz)	B3(Hz)	F4(Hz)	B4(Hz)	F5(Hz)	B5(Hz)
1	0.025	0.004	5	984.633	157.603	1480.222	48.927	2897.016	214.482	4136.969	128.566	4675.998	1518.252
2	0.026	0.004	5	981.095	165.507	1482.550	50.039	2889.730	211.726	4132.057	131.816	4657.750	1513.432
3	0.027	0.004	5	977.967	174.292	1485.060	51.282	2882.134	206.140	4126.756	134.528	4646.430	1521.827
4	0.028	0.004	5	975.425	183.836	1487.640	52.537	2875.320	199.276	4121.690	136.667	4642.854	1545.898
5	0.029	0.004	5	973.617	193.818	1490.226	53.777	2869.856	192.516	4117.335	138.510	4646.397	1584.371
6	0.030	0.004	5	972.573	203.721	1492.833	55.033	2865.876	186.866	4113.953	140.491	4655.336	1633.121
7	0.031	0.004	5	972.150	212.958	1495.546	56.341	2863.259	182.935	4111.559	143.058	4667.053	1685.874
8	0.032	0.004	5	972.042	221.047	1498.472	57.684	2861.780	181.031	4109.904	146.626	4677.965	1734.204
9	0.033	0.004	5	971.846	227.766	1501.680	58.959	2861.207	181.271	4108.487	151.579	4683.450	1767.423
10	0.034	0.004	5	971.146	233.201	1505.156	59.998	2861.335	183.669	4106.614	158.209	4678.739	1774.013
11	0.035	0.004	5	969.592	237.713	1508.792	60.626	2862.020	188.153	4103.517	166.487	4661.477	1745.753
12	0.036	0.004	5	966.952	241.818	1512.413	60.746	2863.199	194.524	4098.564	175.747	4634.242	1682.756
13	0.037	0.004	5	963.120	246.007	1515.832	60.406	2864.909	202.467	4091.518	184.536	4603.784	1594.995
14	0.038	0.004	5	958.092	250.537	1518.904	59.803	2867.284	211.640	4082.746	190.985	4577.242	1498.085
15	0.039	0.004	5	951.931	255.241	1521.548	59.225	2870.514	221.805	4073.167	193.719	4559.143	1406.534
16	0.040	0.004	5	944.778	259.452	1523.753	58.984	2874.782	232.787	4063.889	192.655	4551.166	1329.434
17	0.041	0.004	5	936.897	262.095	1525.567	59.363	2880.202	244.137	4055.789	188.994	4553.389	1270.235
18	0.042	0.004	5	928.710	261.970	1527.086	60.594	2886.703	254.570	4049.338	184.568	4565.247	1228.652
19	0.043	0.004	5	920.751	258.217	1528.450	62.833	2893.809	261.599	4044.691	181.197	4585.703	1202.341
20	0.044	0.004	5	913.531	250.842	1529.860	66.139	2900.493	262.181	4041.852	180.434	4613.003	1188.000
21	0.045	0.004	5	907.416	241.008	1531.620	70.431	2905.480	254.803	4040.846	183.624	4644.579	1183.077
22	0.046	0.004	5	902.554	230.732	1534.175	75.383	2908.038	241.349	4041.915	192.057	4677.592	1188.143
23	0.047	0.004	5	898.864	222.144	1538.033	80.277	2908.450	226.301	4045.668	206.901	4709.982	1207.737
24	0.048	0.004	5	896.085	216.914	1543.495	84.033	2907.668	213.980	4053.135	228.643	4741.355	1248.874
25	0.049	0.004	5	893.901	216.166	1550.299	85.681	2906.679	206.783	4065.544	255.930	4773.622	1319.463
26	0.050	0.004	5	892.095	220.548	1557.581	85.022	2906.144	205.235	4083.546	284.258	4812.110	1427.713
27	0.051	0.004	5	890.595	230.094	1564.283	82.759	2906.324	208.860	4105.781	306.419	4867.366	1579.898
28	0.052	0.004	5	889.389	243.982	1569.626	79.966	2907.163	216.972	4128.165	316.843	4956.367	1773.797
29	0.053	0.004	5	888.398	260.457	1573.242	77.559	2908.492	229.005	4145.952	316.395	5105.709	1993.005
30	0.054	0.004	4	887.402	276.997	1575.056	76.110	2910.209	244.235	4156.602	310.845	--undefined--	--undefined--
31	0.055	0.004	4	886.027	290.648	1575.114	75.896	2912.198	261.117	4159.907	305.786	--undefined--	--undefined--
32	0.056	0.004	4	883.812	298.519	1573.489	76.983	2914.005	276.722	4156.460	304.203	--undefined--	--undefined--
33	0.057	0.004	4	880.407	298.541	1570.295	79.301	2914.593	286.894	4146.769	306.568	--undefined--	--undefined--
34	0.058	0.004	4	875.909	290.385	1565.814	82.748	2912.716	287.806	4131.430	311.524	--undefined--	--undefined--
35	0.059	0.004	4	871.083	275.933	1560.704	87.320	2907.969	278.653	4111.849	316.911	--undefined--	--undefined--
36	0.060	0.004	5	867.084	258.520	1556.086	93.194	2901.326	263.034	4090.544	321.411	5210.611	2228.804
37	0.061	0.004	5	864.749	241.259	1553.261	100.618	2894.272	246.840	4070.210	325.859	5069.215	2089.896
38	0.062	0.004	5	864.100	225.846	1553.110	109.721	2887.670	234.639	4052.169	332.590	4991.454	1962.546
39	0.063	0.004	5	864.454	212.669	1555.638	120.484	2881.561	228.047	4035.838	343.383	4939.392	1838.671
40	0.064	0.004	5	864.930	201.571	1560.078	132.934	2875.555	226.346	4019.488	357.899	4896.836	1710.110
41	0.065	0.004	5	864.890	192.417	1565.360	147.351	2869.244	227.623	4001.468	373.284	4858.178	1576.533
42	0.066	0.004	5	864.076	185.239	1570.491	164.248	2862.467	229.568	3981.339	384.992	4823.049	1445.533
43	0.067	0.004	5	862.531	180.230	1574.640	184.189	2855.434	230.046	3960.412	389.065	4791.277	1327.584
44	0.068	0.004	5	860.447	177.717	1577.038	207.521	2848.663	227.636	3941.074	384.734	4760.655	1229.785
45	0.069	0.004	5	858.020	178.143	1576.829	234.053	2842.725	221.951	3925.303	374.784	4727.771	1152.443
46	0.070	0.004	5	855.347	182.024	1573.065	262.617	2837.986	213.484	3913.805	363.482	4689.894	1089.788
47	0.071	0.004	5	852.333	189.854	1564.984	290.644	2834.566	203.145	3906.203	354.337	4646.613	1033.163
48	0.072	0.004	5	848.655	201.954	1552.625	314.248	2832.481	191.888	3901.656	348.939	4600.950	975.414
49	0.073	0.004	5	843.786	218.343	1537.413	329.509	2831.805	180.615	3899.403	346.607	4559.127	915.306
50	0.074	0.004	5	837.139	238.765	1521.945	334.683	2832.640	170.193	3899.086	344.675	4527.996	858.538
51	0.075	0.004	5	828.199	262.938	1508.724	331.230	2834.951	161.299	3900.583	339.808	4511.509	812.785
52	0.076	0.004	5	816.483	290.835	1498.917	322.413	2838.461	154.189	3903.415	329.753	4509.286	781.092
53	0.077	0.004	5	801.376	322.763	1492.248	311.143	2842.726	148.664	3906.598	314.091	4517.909	760.517
54	0.078	0.004	5	782.076	359.212	1487.758	299.029	2847.315	144.267	3909.342	293.773	4532.972	745.866
55	0.079	0.004	5	757.737	400.474	1484.578	286.554	2851.912	140.522	3911.644	270.395	4550.510	733.417
56	0.080	0.002	5	727.793	446.010	1482.334	273.576	2856.298	137.115	3914.127	245.772	4567.625	721.863
57	0.081	0.002	5	692.449	493.692	1481.200	259.826	2860.285	133.985	3917.448	221.706	4582.494	711.351
58	0.082	0.002	5	653.225	539.401	1481.674	245.304	2863.672	131.353	3921.858	199.773	4594.074	702.400
59	0.083	0.002	5	613.155	577.640	1484.199	230.460	2866.288	129.652	3927.142	181.120	4601.791	695.426
60	0.084	0.002	5	576.197	603.289	1488.823	216.054	2868.098	129.380	3932.821	166.374	4605.380	690.707
61	0.085	0.002	5	545.870	613.577	1495.113	202.830	2869.300	130.965	3938.407	155.675	4604.898	688.466
62	0.086	0.002	5	523.958	608.922	1502.336	191.254	2870.351	134.668	3943.568	148.797	4600.848	689.031
63	0.087	0.002	5	510.202	592.229	1509.737	181.457	2871.860	140.541	3948.179	145.275	4594.271	693.076
64	0.088	0.002	5	503.019	567.420	1516.744	173.336	2874.395	148.367	3952.302	144.487	4586.702	701.740
65	0.089	0.002	5	500.460	538.206	1523.032	166.687	2878.216	157.546	3956.116	145.680	4579.948	716.397
66	0.090	0.002	5	500.819	507.502	1528.504	161.329	2883.042	167.071	3959.843	147.998	4575.760	738.054
67	0.091	0.002	5	502.819	477.349	1533.224	157.199	2887.999	175.750	3963.677	150.593	4575.510	766.649
68	0.092	0.002	5	505.588	448.981	1537.341	154.377	2891.915	182.715	3967.770	152.814	4579.990	800.649
69	0.093	0.002	5	508.566	422.878	1541.001	153.026	2893.831	187.866	3972.275	154.372	4589.304	837.156
70	0.094	0.002	5	511.401	398.895	1544.267	153.305	2893.333	191.893	3977.395	155.363	4602.805	872.436
71	0.095	0.002	5	513.861	376.594	1547.069	155.309	2890.471	195.911	3983.349	156.110	4619.067	902.733
72	0.096	0.002	5	515.773	355.645	1549.197	159.052	2885.420	201.014	3990.266	156.927	4636.065	925.193
73	0.097	0.002	5	517.003	336.074	1550.339	164.399	2878.187	207.968	3998.057	157.925	4651.670	938.514
74	0.098	0.002	5	517.446	318.224	1550.171	170.916	2868.510	216.986	4006.314	158.947	4664.294	942.780
75	0.099	0.002	5	517.046	302.477	1548.514	177.688	2855.934	227.519	4014.290	159.662	4673.377	938.600
76	0.100	0.002	5	515.820	288.952	1545.542	183.249	2840.061	238.091	4021.021	159.784	4679.580	926.445
77	0.101	0.002	5	513.886	277.387	1541.939	185.879	2820.934	246.407	4025.557	159.300	4684.749	906.957
78	0.102	0.002	5	511.476	267.277	1538.821	184.323	2799.430	250.007	4027.208	158.640	4691.556	881.721
79	0.103	0.002	5	508.904	258.154	1537.305	178.520	2777.317	247.376	4025.607	158.702	4702.573	852.991
80	0.104	0.002	5	506.458	249.700	1537.985	169.658	2756.786	238.783	4020.573	160.721	4718.914	821.961
81	0.105	0.002	5	504.283	241.634	1540.737	159.499	2739.682	226.126	4011.934	165.957	4739.268	787.578
82	0.106	0.002	5	502.316	233.624	1544.950	149.625	2727.034	211.938	3999.536	175.282	4760.379	747.944
83	0.107	0.002	5	500.294	225.431	1549.903	141.088	2719.124	198.411	3983.445	188.843	4778.880	703.129
84	0.108	0.002	5	497.836	217.121	1554.987	134.424	2715.794	186.956	3964.207	206.056	4792.851	656.373
85	0.109	0.002	5	494.560	209.132	1559.719	129.765	2716.684	178.247	3942.919	225.945	4801.930	612.723
86	0.110	0.002	5	490.206	202.137	1563.639	126.930	2721.313	172.474	3921.001	247.626	4806.538	576.817
87	0.111	0.001	5	484.723	196.842	1566.232	125.459	2729.062	169.583	3899.766	270.601	4807.241	551.494
88	0.112	0.001	5	478.293	193.788	1566.976	124.646	2739.161	169.453	3880.052	294.711	4804.579	537.607
89	0.113	0.001	5	471.289	193.170	1565.622	123.666	2750.776	171.980	3862.168	319.818	4799.213	534.583
90	0.114	0.001	5	464.167	194.683	1562.557	121.878	2763.183	177.017	3846.131	345.334	4792.192	541.247
91	0.115	0.001	5	457.327	197.508	1558.890	119.146	2775.933	184.177	3832.042	369.735	4785.196	556.648
92	0.116	0.0008	5	450.994	200.518	1556.046	115.871	2788.826	192.521	3820.362	390.232	4780.488	580.608
93	0.117	0.0008	5	445.172	202.564	1555.213	112.636	2801.686	200.391	3811.897	403.044	4780.440	613.562
94	0.118	0.0008	5	439.686	202.691	1557.087	109.844	2814.079	205.741	3807.405	404.690	4786.770	655.566
95	0.119	0.0008	5	434.293	200.308	1561.950	107.584	2825.266	207.009	3807.110	393.905	4799.893	705.043
96	0.120	0.0005	5	428.803	195.290	1569.796	105.689	2834.501	203.935	3810.617	372.637	4818.741	758.247
97	0.121	0.0005	5	423.137	187.938	1580.342	103.791	2841.377	197.580	3817.243	345.039	4841.109	809.672
98	0.122	0.0005	5	417.328	178.853	1592.944	101.397	2845.913	189.655	3826.299	315.335	4864.303	852.920
99	0.123	0.0005	5	411.479	168.826	1606.581	98.061	2848.413	181.817	3837.018	286.374	4885.811	881.993
100	0.124	0.0005	5	405.718	158.769	1620.016	93.634	2849.303	175.397	3848.356	259.539	4903.877	893.307
101	0.125	0.0005	5	400.181	149.595	1632.121	88.422	2849.056	171.462	3858.985	235.454	4917.782	887.604
102	0.126	0.0005	5	395.010	142.069	1642.151	83.121	2848.155	170.960	3867.597	214.677	4927.692	870.205
103	0.127	0.0005	5	390.362	136.693	1649.804	78.552	2847.015	174.781	3873.332	197.925	4934.268	849.244
104	0.128	0.0005	5	386.392	133.666	1655.084	75.400	2845.843	183.702	3876.027	185.862	4938.334	832.966
105	0.129	0.0005	5	383.196	132.919	1658.117	74.083	2844.480	198.213	3876.155	178.813	4940.686	827.516
106	0.130	0.0005	5	380.754	134.194	1659.038	74.769	2842.345	218.219	3874.564	176.677	4942.021	835.990
107	0.131	0.0005	5	378.904	137.130	1657.952	77.438	2838.540	242.597	3872.201	179.037	4942.966	858.627
108	0.132	0.0005	5	377.370	141.279	1654.948	81.920	2832.191	268.691	3869.893	185.378	4944.183	893.603
109	0.133	0.0005	5	375.857	146.089	1650.131	87.883	2823.029	292.238	3868.216	195.402	4946.539	938.237
110	0.134	0.0004	5	374.136	150.953	1643.682	94.834	2812.060	308.415	3867.407	209.453	4951.269	990.521
111	0.135	0.0004	5	372.107	155.412	1635.930	102.230	2801.740	314.068	3867.215	228.877	4959.740	1049.751
112	0.136	0.0004	5	369.789	159.355	1627.363	109.690	2795.002	309.394	3866.541	255.973	4971.961	1113.537
113	0.137	0.0004	5	367.253	162.892	1618.487	117.094	2793.464	297.281	3862.776	293.216	4983.093	1169.801
114	0.138	0.0004	5	364.551	165.870	1609.559	124.378	2796.150	281.044	3851.021	341.289	4980.677	1189.630
115	0.139	0.0003	5	361.681	167.606	1600.472	131.212	2799.888	262.665	3824.689	394.555	4954.446	1138.761
116	0.140	0.0003	5	358.622	167.416	1591.017	136.994	2801.346	242.116	3780.896	435.825	4915.633	1015.509
117	0.141	0.0003	5	355.385	165.476	1581.309	141.310	2799.286	218.071	3728.458	446.075	4884.918	864.572
118	0.142	0.0003	5	352.015	162.881	1571.815	144.375	2794.982	190.349	3682.433	426.947	4867.788	731.558
119	0.143	0.0003	5	348.562	160.869	1562.979	146.888	2790.529	161.298	3650.254	395.792	4859.856	633.087
120	0.144	0.0003	5	345.067	160.233	1554.960	149.525	2787.282	134.155	3631.024	366.508	4857.084	568.137
121	0.145	0.0003	5	341.553	161.287	1547.686	152.617	2785.714	111.059	3621.224	345.097	4857.368	531.326
122	0.146	0.0003	5	338.022	164.082	1541.024	156.149	2785.877	92.672	3617.554	333.127	4859.630	517.652
123	0.147	0.0003	5	334.451	168.632	1534.924	159.911	2787.719	78.749	3617.377	330.741	4863.165	523.434
124	0.148	0.0003	5	330.807	175.068	1529.465	163.722	2791.188	68.722	3618.586	338.102	4867.355	546.295
125	0.149	0.0003	5	327.050	183.720	1524.840	167.614	2796.219	62.011	3619.526	355.904	4871.565	584.897
126	0.150	0.0003	5	323.125	195.090	1521.291	171.939	2802.660	58.142	3619.012	385.340	4875.127	638.493
127	0.151	0.0003	5	318.929	209.786	1519.050	177.373	2810.182	56.754	3616.330	427.738	4877.368	706.202
128	0.152	0.0003	5	314.257	228.520	1518.316	184.936	2818.166	57.595	3611.026	483.935	4877.557	785.958
129	0.153	0.0002	5	308.730	252.233	1519.261	196.086	2825.596	60.567	3602.279	553.364	4874.723	872.887
130	0.154	0.0002	5	301.715	282.172	1521.982	212.821	2830.993	65.810	3587.909	632.555	4867.495	957.002
131	0.155	0.0002	5	292.259	319.551	1526.353	237.558	2832.478	73.747	3564.111	712.874	4854.840	1022.737
132	0.156	0.0002	5	279.139	364.781	1531.849	272.635	2828.079	84.803	3528.632	779.330	4838.662	1057.141
133	0.157	0.0002	5	260.983	417.132	1537.623	319.735	2816.349	98.467	3487.442	816.695	4825.107	1065.249
134	0.158	0.0002	5	236.104	475.628	1542.906	379.716	2797.229	112.278	3455.332	823.749	4820.516	1070.759
135	0.159	0.0002	5	201.459	540.110	1547.308	452.619	2772.671	122.625	3445.177	815.572	4828.209	1098.081
136	0.160	0.0001	5	149.437	610.690	1550.659	536.549	2745.926	127.541	3459.864	806.399	4850.409	1159.771
137	0.161	0.0001	4	1552.711	625.007	2719.733	127.788	3493.936	796.757	4889.694	1252.342	--undefined--	--undefined--
138	0.162	0.0001	4	1553.280	705.037	2695.449	125.139	3537.261	777.209	4944.382	1349.697	--undefined--	--undefined--
139	0.163	0.0001	4	1552.832	760.678	2673.529	120.932	3578.796	740.847	4997.068	1403.286	--undefined--	--undefined--
140	0.164	0.0001	4	1552.715	782.709	2654.178	116.047	3612.564	689.966	5017.878	1374.700	--undefined--	--undefined--
141	0.165	0.0001	4	1554.263	775.344	2637.615	111.382	3639.951	631.658	5000.329	1274.579	--undefined--	--undefined--
142	0.166	0.0001	4	1557.750	751.184	2624.033	108.043	3665.138	573.292	4965.617	1146.285	--undefined--	--undefined--
143	0.167	0.0001	4	1562.414	722.107	2613.561	107.225	3690.235	521.681	4930.413	1025.501	--undefined--	--undefined--
144	0.168	0.0001	4	1566.961	695.849	2606.366	110.084	3714.402	482.706	4899.412	928.110	--undefined--	--undefined--
145	0.169	0.0001	4	1569.859	677.003	2602.775	117.743	3735.288	460.958	4872.143	857.058	--undefined--	--undefined--
146	0.170	0.0001	4	1569.389	667.991	2603.267	131.241	3750.308	459.510	4847.325	808.942	--undefined--	--undefined--
147	0.171	0.0001	4	1563.670	668.605	2608.160	151.257	3757.050	479.356	4824.610	776.814	--undefined--	--undefined--
148	0.172	0.0001	4	1550.968	675.296	2617.052	177.619	3753.371	518.077	4805.205	752.421	--undefined--	--undefined--
149	0.173	0.0001	4	1530.635	681.858	2628.330	209.022	3738.001	568.243	4791.276	730.285	--undefined--	--undefined--
150	0.174	0.0002	4	1504.256	682.427	2639.277	243.262	3711.895	617.925	4783.898	711.391	--undefined--	--undefined--
151	0.175	0.0002	4	1475.471	675.375	2647.067	277.680	3679.135	654.794	4781.370	701.851	--undefined--	--undefined--
152	0.176	0.0002	4	1447.965	663.545	2650.242	309.501	3646.216	671.020	4779.991	707.460	--undefined--	--undefined--
153	0.177	0.0002	4	1424.231	649.993	2649.659	336.703	3620.357	666.079	4776.424	729.442	--undefined--	--undefined--
154	0.178	0.0002	4	1406.213	634.920	2647.971	359.282	3607.083	646.677	4769.783	763.341	--undefined--	--undefined--
155	0.179	0.0002	4	1395.851	616.498	2647.954	378.993	3608.053	621.725	4763.044	800.733	--undefined--	--undefined--
156	0.180	0.0002	4	1394.360	593.112	2651.069	397.172	3621.206	595.939	4762.610	833.995	--undefined--	--undefined--
157	0.181	0.0002	4	1401.052	564.601	2656.835	412.912	3641.959	568.671	4774.620	861.067	--undefined--	--undefined--
158	0.182	0.0002	4	1413.147	532.440	2662.937	423.470	3664.237	537.892	4801.592	886.100	--undefined--	--undefined--
159	0.183	0.0002	4	1427.016	499.525	2666.470	426.370	3682.348	504.070	4843.539	915.715	--undefined--	--undefined--
160	0.184	0.0002	4	1439.860	469.363	2665.993	420.835	3693.023	469.612	4899.824	950.484	--undefined--	--undefined--
161	0.185	0.0002	4	1450.371	444.810	2662.565	407.760	3695.715	436.557	4966.438	976.053	--undefined--	--undefined--
162	0.186	0.0002	4	1458.205	427.273	2658.744	389.248	3691.683	406.319	5029.691	965.045	--undefined--	--undefined--
163	0.187	0.0002	4	1463.261	416.540	2656.750	367.824	3683.191	380.356	5067.983	900.621	--undefined--	--undefined--
164	0.188	0.0002	4	1465.469	411.042	2657.461	345.371	3673.230	359.783	5071.560	797.453	--undefined--	--undefined--
165	0.189	0.0002	4	1465.285	408.671	2660.636	322.504	3665.509	343.687	5050.086	683.759	--undefined--	--undefined--
166	0.190	0.0002	4	1464.508	408.229	2665.510	298.975	3663.917	327.779	5017.506	577.677	--undefined--	--undefined--
167	0.191	0.0002	4	1466.245	410.632	2670.831	275.425	3670.576	306.499	4983.652	485.630	--undefined--	--undefined--
168	0.192	0.0002	4	1473.669	418.519	2674.834	254.860	3683.688	278.313	4953.823	409.938	--undefined--	--undefined--
169	0.193	0.0002	4	1488.706	434.220	2676.251	241.429	3698.655	247.682	4929.310	352.071	--undefined--	--undefined--
170	0.194	0.0002	4	1511.172	457.197	2675.246	237.870	3711.612	220.894	4908.811	312.040	--undefined--	--undefined--
171	0.195	0.0002	4	1538.412	482.564	2672.998	244.446	3720.971	201.811	4889.937	288.441	--undefined--	--undefined--
172	0.196	0.0002	4	1565.989	502.540	2670.650	259.601	3726.689	191.488	4870.136	279.030	--undefined--	--undefined--
173	0.197	0.0002	4	1589.391	510.709	2668.739	281.134	3729.233	189.463	4847.311	280.800	--undefined--	--undefined--
174	0.198	0.0002	4	1605.999	505.439	2667.376	307.024	3729.008	194.514	4820.408	289.759	--undefined--	--undefined--
175	0.199	0.0002	4	1615.881	489.322	2666.721	335.637	3726.177	204.802	4789.988	301.303	--undefined--	--undefined--
176	0.200	0.0002	4	1620.801	466.499	2667.218	365.576	3720.780	217.987	4758.401	311.697	--undefined--	--undefined--
177	0.201	0.0002	4	1622.726	440.853	2669.495	395.452	3712.999	231.643	4729.067	319.796	--undefined--	--undefined--
178	0.202	0.0002	4	1623.067	415.440	2674.084	423.453	3703.354	243.822	4705.166	327.193	--undefined--	--undefined--
179	0.203	0.0002	4	1622.611	392.452	2681.101	446.808	3692.762	253.459	4688.813	336.457	--undefined--	--undefined--
180	0.204	0.0002	4	1621.674	373.194	2689.818	461.717	3682.427	260.470	4681.300	349.150	--undefined--	--undefined--
181	0.205	0.0002	4	1620.296	357.753	2698.400	464.485	3673.601	265.633	4683.761	364.761	--undefined--	--undefined--
182	0.206	0.0002	4	1618.497	344.434	2704.544	453.656	3667.328	270.286	4697.395	380.150	--undefined--	--undefined--
183	0.207	0.0002	4	1616.492	329.896	2706.995	431.400	3664.377	276.066	4722.629	389.260	--undefined--	--undefined--
184	0.208	0.0002	4	1614.651	311.204	2706.388	402.494	3665.292	284.729	4757.188	384.768	--undefined--	--undefined--
185	0.209	0.0002	4	1613.216	288.469	2704.510	371.917	3670.437	298.014	4795.123	363.386	--undefined--	--undefined--
186	0.210	0.0002	4	1612.068	264.725	2703.129	343.213	3679.943	317.400	4829.579	329.946	--undefined--	--undefined--
187	0.211	0.0002	4	1610.752	243.395	2703.462	318.260	3693.442	343.630	4856.612	293.633	--undefined--	--undefined--
188	0.212	0.0002	4	1608.616	226.566	2706.185	297.856	3709.487	376.120	4875.608	261.780	--undefined--	--undefined--
